% * Sample: 2SD844_3
% * Date / time: 2023-12-09 12:40:18.542969
% * R2CONTROL =  2093.0 Ohm
% Column 1:  PSU1 nominal voltage setting (V)
% Column 2:  PSU1 nominal current setting (A)
% Column 3:  PSU1 voltage measurement (V)
% Column 4:  PSU1 current measurement (I)
% Column 5:  PSU1 limiter flag
% Column 6:  PSU2 nominal voltage setting (V)
% Column 7:  PSU2 nominal current setting (A)
% Column 8:  PSU2 voltage measurement (V)
% Column 9:  PSU2 current measurement (I)
% Column 10: PSU2 limiter flag
% Column 11: Heaterblock temperature (°C)
% * OPERATING POINT AT END OF PREHEAT / IDLE: U1 = 11.999 V  I1 = 0.5000 A  U2 = 7.498 V  I2 = 0.0034 A  T = 50.06 °C
0.000 2.0000 0.000 0.0000 0 0.650 0.3000 0.650 0.0003 0 50.00
1.000 2.0000 1.000 0.0077 0 0.650 0.3000 0.650 0.0002 0 50.00
2.000 2.0000 2.001 0.0077 0 0.650 0.3000 0.650 0.0002 0 49.94
3.000 2.0000 3.000 0.0078 0 0.650 0.3000 0.650 0.0002 0 49.94
4.000 2.0000 4.001 0.0078 0 0.650 0.3000 0.650 0.0002 0 49.94
5.000 2.0000 5.001 0.0077 0 0.650 0.3000 0.650 0.0002 0 49.94
6.000 2.0000 6.000 0.0078 0 0.650 0.3000 0.650 0.0002 0 50.00
7.000 2.0000 7.000 0.0079 0 0.650 0.3000 0.650 0.0002 0 50.00
8.000 2.0000 7.999 0.0078 0 0.650 0.3000 0.649 0.0002 0 50.00
9.000 2.0000 8.999 0.0078 0 0.650 0.3000 0.649 0.0002 0 50.00
10.000 2.0000 9.999 0.0078 0 0.650 0.3000 0.650 0.0002 0 50.00
11.000 2.0000 10.999 0.0078 0 0.650 0.3000 0.650 0.0002 0 50.00
12.000 2.0000 11.999 0.0079 0 0.650 0.3000 0.650 0.0002 0 50.00
13.000 2.0000 12.998 0.0079 0 0.650 0.3000 0.649 0.0002 0 50.06
14.000 2.0000 13.999 0.0078 0 0.650 0.3000 0.650 0.0002 0 50.06
15.000 2.0000 14.999 0.0079 0 0.650 0.3000 0.650 0.0002 0 50.00
16.000 2.0000 15.999 0.0079 0 0.650 0.3000 0.650 0.0002 0 50.00
17.000 2.0000 16.999 0.0080 0 0.650 0.3000 0.650 0.0002 0 50.00
18.000 2.0000 17.998 0.0079 0 0.650 0.3000 0.650 0.0002 0 50.00
19.000 2.0000 18.998 0.0079 0 0.650 0.3000 0.650 0.0002 0 50.00
20.000 2.0000 19.999 0.0079 0 0.650 0.3000 0.650 0.0002 0 50.00
0.000 2.0000 0.001 0.0000 0 4.836 0.3000 4.836 0.0022 0 50.06
1.000 2.0000 1.000 0.2890 0 4.836 0.3000 4.836 0.0022 0 50.06
2.000 2.0000 2.000 0.2909 0 4.836 0.3000 4.836 0.0021 0 50.06
3.000 2.0000 3.000 0.2925 0 4.836 0.3000 4.836 0.0022 0 50.06
4.000 2.0000 4.001 0.2939 0 4.836 0.3000 4.836 0.0022 0 50.06
5.000 2.0000 5.001 0.2953 0 4.836 0.3000 4.836 0.0022 0 50.06
6.000 2.0000 6.000 0.2967 0 4.836 0.3000 4.836 0.0022 0 50.06
7.000 2.0000 7.000 0.2981 0 4.836 0.3000 4.836 0.0022 0 50.06
8.000 2.0000 7.999 0.2994 0 4.836 0.3000 4.836 0.0022 0 50.06
9.000 2.0000 8.999 0.3007 0 4.836 0.3000 4.836 0.0022 0 50.00
10.000 2.0000 9.999 0.3020 0 4.836 0.3000 4.836 0.0022 0 50.06
11.000 2.0000 10.999 0.3033 0 4.836 0.3000 4.836 0.0022 0 50.06
12.000 2.0000 11.999 0.3046 0 4.836 0.3000 4.836 0.0022 0 50.00
13.000 2.0000 12.998 0.3059 0 4.836 0.3000 4.836 0.0022 0 50.00
14.000 2.0000 13.998 0.3072 0 4.836 0.3000 4.836 0.0022 0 50.00
15.000 2.0000 14.999 0.3084 0 4.836 0.3000 4.836 0.0022 0 50.06
16.000 2.0000 15.999 0.3097 0 4.836 0.3000 4.836 0.0022 0 50.06
17.000 2.0000 16.999 0.3109 0 4.836 0.3000 4.836 0.0022 0 50.00
18.000 2.0000 17.999 0.3122 0 4.836 0.3000 4.836 0.0022 0 50.06
19.000 2.0000 18.999 0.3134 0 4.836 0.3000 4.836 0.0022 0 50.06
20.000 2.0000 19.999 0.3148 0 4.836 0.3000 4.836 0.0022 0 50.06
0.000 2.0000 0.001 0.0000 0 9.022 0.3000 9.021 0.0042 0 50.06
1.000 2.0000 1.000 0.5613 0 9.022 0.3000 9.021 0.0041 0 50.00
2.000 2.0000 2.000 0.5663 0 9.022 0.3000 9.021 0.0041 0 49.94
3.000 2.0000 3.000 0.5708 0 9.022 0.3000 9.021 0.0041 0 49.94
4.000 2.0000 4.001 0.5750 0 9.022 0.3000 9.021 0.0042 0 49.94
5.000 2.0000 5.001 0.5791 0 9.022 0.3000 9.021 0.0042 0 50.00
6.000 2.0000 6.001 0.5831 0 9.022 0.3000 9.021 0.0042 0 50.00
7.000 2.0000 7.000 0.5870 0 9.022 0.3000 9.021 0.0041 0 50.00
8.000 2.0000 7.999 0.5910 0 9.022 0.3000 9.021 0.0042 0 50.00
9.000 2.0000 8.999 0.5949 0 9.022 0.3000 9.021 0.0042 0 50.06
10.000 2.0000 10.000 0.5987 0 9.022 0.3000 9.021 0.0041 0 50.06
11.000 2.0000 10.999 0.6025 0 9.022 0.3000 9.021 0.0042 0 50.06
12.000 2.0000 11.999 0.6064 0 9.022 0.3000 9.021 0.0041 0 50.06
13.000 2.0000 12.998 0.6103 0 9.022 0.3000 9.021 0.0042 0 50.06
14.000 2.0000 13.999 0.6141 0 9.022 0.3000 9.021 0.0042 0 50.06
15.000 2.0000 14.999 0.6180 0 9.022 0.3000 9.021 0.0041 0 50.06
16.000 2.0000 15.999 0.6218 0 9.022 0.3000 9.021 0.0041 0 50.06
17.000 2.0000 16.999 0.6257 0 9.022 0.3000 9.021 0.0041 0 50.06
18.000 2.0000 17.999 0.6297 0 9.022 0.3000 9.021 0.0041 0 50.06
19.000 2.0000 18.999 0.6336 0 9.022 0.3000 9.021 0.0041 0 50.06
20.000 2.0000 19.999 0.6376 0 9.022 0.3000 9.021 0.0041 0 50.06
0.000 2.0000 0.001 0.0000 0 13.208 0.3000 13.208 0.0062 0 50.06
1.000 2.0000 1.000 0.8081 0 13.208 0.3000 13.208 0.0062 0 49.94
2.000 2.0000 2.000 0.8237 0 13.208 0.3000 13.208 0.0061 0 49.88
3.000 2.0000 3.000 0.8317 0 13.208 0.3000 13.207 0.0061 0 49.88
4.000 2.0000 4.001 0.8396 0 13.208 0.3000 13.207 0.0061 0 49.88
5.000 2.0000 5.001 0.8471 0 13.208 0.3000 13.208 0.0061 0 49.94
6.000 2.0000 6.000 0.8545 0 13.208 0.3000 13.207 0.0062 0 49.94
7.000 2.0000 7.000 0.8618 0 13.208 0.3000 13.207 0.0061 0 50.00
8.000 2.0000 7.999 0.8691 0 13.208 0.3000 13.208 0.0062 0 50.00
9.000 2.0000 8.999 0.8764 0 13.208 0.3000 13.208 0.0062 0 50.06
10.000 2.0000 10.000 0.8834 0 13.208 0.3000 13.207 0.0061 0 50.06
11.000 2.0000 10.999 0.8905 0 13.208 0.3000 13.207 0.0062 0 50.06
12.000 2.0000 12.000 0.8974 0 13.208 0.3000 13.207 0.0061 0 50.06
13.000 2.0000 12.998 0.9046 0 13.208 0.3000 13.208 0.0061 0 50.06
14.000 2.0000 13.999 0.9113 0 13.208 0.3000 13.208 0.0062 0 50.06
15.000 2.0000 14.999 0.9183 0 13.208 0.3000 13.208 0.0061 0 50.06
16.000 2.0000 15.999 0.9253 0 13.208 0.3000 13.208 0.0062 0 50.06
17.000 2.0000 16.999 0.9324 0 13.208 0.3000 13.208 0.0061 0 50.06
18.000 2.0000 17.998 0.9395 0 13.208 0.3000 13.207 0.0061 0 50.06
19.000 2.0000 18.999 0.9466 0 13.208 0.3000 13.208 0.0061 0 50.06
20.000 2.0000 19.999 0.9538 0 13.208 0.3000 13.208 0.0062 0 50.06
0.000 2.0000 0.002 0.0000 0 17.394 0.3000 17.394 0.0082 0 50.06
1.000 2.0000 1.000 1.0074 0 17.394 0.3000 17.394 0.0082 0 49.94
2.000 2.0000 2.001 1.0639 0 17.394 0.3000 17.394 0.0082 0 49.88
3.000 2.0000 3.000 1.0768 0 17.394 0.3000 17.394 0.0081 0 49.81
4.000 2.0000 4.001 1.0886 0 17.394 0.3000 17.393 0.0082 0 49.81
5.000 2.0000 5.001 1.1003 0 17.394 0.3000 17.394 0.0082 0 49.88
6.000 2.0000 6.000 1.1115 0 17.394 0.3000 17.394 0.0082 0 49.94
7.000 2.0000 7.000 1.1226 0 17.394 0.3000 17.394 0.0082 0 49.94
8.000 2.0000 7.999 1.1337 0 17.394 0.3000 17.394 0.0082 0 50.00
9.000 2.0000 9.000 1.1444 0 17.394 0.3000 17.394 0.0082 0 50.00
10.000 2.0000 10.000 1.1551 0 17.394 0.3000 17.393 0.0082 0 50.06
11.000 2.0000 10.999 1.1656 0 17.394 0.3000 17.394 0.0082 0 50.06
12.000 2.0000 11.999 1.1760 0 17.394 0.3000 17.394 0.0082 0 50.06
13.000 2.0000 12.998 1.1863 0 17.394 0.3000 17.394 0.0082 0 50.06
14.000 2.0000 13.999 1.1964 0 17.394 0.3000 17.394 0.0081 0 50.12
15.000 2.0000 14.999 1.2067 0 17.394 0.3000 17.393 0.0082 0 50.06
16.000 2.0000 15.999 1.2167 0 17.394 0.3000 17.393 0.0082 0 50.12
17.000 2.0000 16.999 1.2266 0 17.394 0.3000 17.394 0.0082 0 50.12
18.000 2.0000 17.999 1.2368 0 17.394 0.3000 17.394 0.0082 0 50.12
19.000 2.0000 18.999 1.2469 0 17.394 0.3000 17.393 0.0082 0 50.12
20.000 2.0000 19.999 1.2570 0 17.394 0.3000 17.394 0.0082 0 50.12
0.000 2.0000 0.002 0.0000 0 21.580 0.3000 21.579 0.0102 0 50.06
1.000 2.0000 1.000 1.1621 0 21.580 0.3000 21.580 0.0102 0 49.88
2.000 2.0000 2.001 1.2877 0 21.580 0.3000 21.579 0.0102 0 49.75
3.000 2.0000 3.000 1.3072 0 21.580 0.3000 21.579 0.0102 0 49.75
4.000 2.0000 4.001 1.3237 0 21.580 0.3000 21.579 0.0102 0 49.75
5.000 2.0000 5.001 1.3396 0 21.580 0.3000 21.579 0.0102 0 49.81
6.000 2.0000 6.000 1.3552 0 21.580 0.3000 21.579 0.0102 0 49.88
7.000 2.0000 7.000 1.3702 0 21.580 0.3000 21.579 0.0101 0 49.94
8.000 2.0000 7.999 1.3851 0 21.580 0.3000 21.579 0.0102 0 50.00
9.000 2.0000 8.999 1.3996 0 21.580 0.3000 21.579 0.0101 0 50.00
10.000 2.0000 10.000 1.4138 0 21.580 0.3000 21.579 0.0102 0 50.06
11.000 2.0000 10.999 1.4279 0 21.580 0.3000 21.579 0.0102 0 50.06
12.000 2.0000 12.000 1.4416 0 21.580 0.3000 21.579 0.0102 0 50.12
13.000 2.0000 12.998 1.4551 0 21.580 0.3000 21.579 0.0102 0 50.12
14.000 2.0000 13.999 1.4683 0 21.580 0.3000 21.580 0.0102 0 50.12
15.000 2.0000 14.999 1.4814 0 21.580 0.3000 21.579 0.0102 0 50.12
16.000 2.0000 15.999 1.4942 0 21.580 0.3000 21.579 0.0102 0 50.12
17.000 2.0000 16.999 1.5068 0 21.580 0.3000 21.580 0.0102 0 50.12
18.000 2.0000 17.999 1.5195 0 21.580 0.3000 21.580 0.0102 0 50.12
19.000 2.0000 18.999 1.5321 0 21.580 0.3000 21.579 0.0102 0 50.12
20.000 2.0000 19.999 1.5449 0 21.580 0.3000 21.579 0.0102 0 50.12
0.000 2.0000 0.002 0.0000 0 25.766 0.3000 25.766 0.0122 0 50.06
1.000 2.0000 1.000 1.2900 0 25.766 0.3000 25.766 0.0122 0 49.88
2.000 2.0000 2.000 1.4933 0 25.766 0.3000 25.766 0.0121 0 49.75
3.000 2.0000 3.000 1.5241 0 25.766 0.3000 25.766 0.0121 0 49.69
4.000 2.0000 4.001 1.5461 0 25.766 0.3000 25.766 0.0122 0 49.69
5.000 2.0000 5.001 1.5667 0 25.766 0.3000 25.766 0.0122 0 49.75
6.000 2.0000 6.001 1.5863 0 25.766 0.3000 25.766 0.0122 0 49.88
7.000 2.0000 7.000 1.6056 0 25.766 0.3000 25.766 0.0121 0 49.94
8.000 2.0000 8.000 1.6242 0 25.766 0.3000 25.766 0.0122 0 50.00
9.000 2.0000 9.000 1.6424 0 25.766 0.3000 25.766 0.0122 0 50.00
10.000 2.0000 10.000 1.6603 0 25.766 0.3000 25.766 0.0122 0 50.06
11.000 2.0000 10.999 1.6774 0 25.766 0.3000 25.766 0.0122 0 50.06
12.000 2.0000 12.000 1.6944 0 25.766 0.3000 25.766 0.0122 0 50.12
13.000 2.0000 12.999 1.7109 0 25.766 0.3000 25.767 0.0121 0 50.12
14.000 2.0000 13.999 1.7269 0 25.766 0.3000 25.766 0.0122 0 50.12
15.000 2.0000 14.999 1.7426 0 25.766 0.3000 25.766 0.0122 0 50.12
16.000 2.0000 15.999 1.7578 0 25.766 0.3000 25.766 0.0122 0 50.12
17.000 2.0000 16.999 1.7728 0 25.766 0.3000 25.766 0.0122 0 50.12
18.000 2.0000 17.999 1.7876 0 25.766 0.3000 25.766 0.0122 0 50.19
19.000 2.0000 18.999 1.8022 0 25.766 0.3000 25.766 0.0122 0 50.19
20.000 2.0000 19.999 1.8168 0 25.766 0.3000 25.766 0.0122 0 50.19
0.000 2.0000 0.002 0.0000 0 29.952 0.3000 29.953 0.0142 0 50.12
1.000 2.0000 1.000 1.3999 0 29.952 0.3000 29.953 0.0141 0 49.81
2.000 2.0000 2.001 1.6762 0 29.952 0.3000 29.953 0.0142 0 49.69
3.000 2.0000 3.000 1.7273 0 29.952 0.3000 29.953 0.0142 0 49.62
4.000 2.0000 4.001 1.7556 0 29.952 0.3000 29.952 0.0141 0 49.69
5.000 2.0000 5.001 1.7811 0 29.952 0.3000 29.953 0.0142 0 49.75
6.000 2.0000 6.001 1.8052 0 29.952 0.3000 29.952 0.0141 0 49.81
7.000 2.0000 7.000 1.8284 0 29.952 0.3000 29.953 0.0142 0 49.88
8.000 2.0000 7.999 1.8510 0 29.952 0.3000 29.952 0.0142 0 50.00
9.000 2.0000 9.000 1.8726 0 29.952 0.3000 29.953 0.0141 0 50.06
10.000 2.0000 10.000 1.8938 0 29.952 0.3000 29.952 0.0142 0 50.06
11.000 2.0000 10.999 1.9141 0 29.952 0.3000 29.952 0.0141 0 50.12
12.000 2.0000 12.000 1.9337 0 29.952 0.3000 29.952 0.0141 0 50.12
13.000 2.0000 12.999 1.9529 0 29.952 0.3000 29.953 0.0142 0 50.12
14.000 2.0000 13.999 1.9714 0 29.952 0.3000 29.952 0.0141 0 50.12
15.000 2.0000 14.999 1.9892 0 29.952 0.3000 29.953 0.0141 0 50.19
16.000 2.0000 15.590 2.0003 1 29.952 0.3000 29.952 0.0142 0 50.19
0.000 2.0000 0.002 0.0000 0 34.138 0.2929 34.138 0.0162 0 50.06
1.000 2.0000 1.000 1.4969 0 34.138 0.2929 34.138 0.0161 0 49.81
2.000 2.0000 2.001 1.8335 0 34.138 0.2929 34.138 0.0161 0 49.69
3.000 2.0000 3.000 1.9152 0 34.138 0.2929 34.138 0.0161 0 49.69
4.000 2.0000 4.001 1.9515 0 34.138 0.2929 34.138 0.0161 0 49.69
5.000 2.0000 5.001 1.9823 0 34.138 0.2929 34.138 0.0161 0 49.81
6.000 2.0000 5.589 2.0003 1 34.138 0.2929 34.138 0.0161 0 49.88
0.000 2.0000 0.003 0.0000 0 38.324 0.2609 38.323 0.0182 0 49.94
1.000 2.0000 1.000 1.5859 0 38.324 0.2609 38.323 0.0181 0 49.94
2.000 2.0000 2.001 1.9712 0 38.324 0.2609 38.323 0.0181 0 49.88
3.000 2.0000 2.144 2.0002 1 38.324 0.2609 38.323 0.0181 0 49.88
0.000 2.0000 0.003 0.0000 0 42.510 0.2352 42.509 0.0202 0 49.94
1.000 2.0000 1.000 1.6672 0 42.510 0.2352 42.509 0.0201 0 49.94
2.000 2.0000 1.715 2.0003 1 42.510 0.2352 42.509 0.0200 0 49.94
