% * Sample: IRFP150_T60
% * Date / time: 2021-11-20 23:00:17.285073
% * PSU1:
%   - Type: KORAD / KWR103
%   - voltage output = 0.0 V ... 20.0 V (1.0 V steps)
%   - current limit = 15.0 A
%   - power limit = 100.0 W
%   - polarity: normal
% * PSU2:
%   - Type: KORAD / KWR103
%   - voltage output = 3.2 V ... 4.5 V (0.1 V steps)
%   - current limit = 1.0 A
%   - power limit = 5.0 W
%   - polarity: normal
% * Repeats per reading = 1
% * Idle time between measurements: 5 s
% * Pre-heat time before measurements (at idle conditions): 60 seconds
% * PSU1 idle / pre-heat voltage = 10.0 V (fixed value)
% * PSU1 idle / pre-heat current = 0.5 A
% * PSU1 max. idle / pre-heat power = 100.0 W
% * PSU2 idle / pre-heat voltage range = 1.0 V ... 10.0 V.
% * PSU2 idle / pre-heat current = 1.0 A
% * PSU2 max. idle / pre-heat power = 5.0 W
% * Heaterblock temperature (current) = 58.62
% * Heaterblock temperature (target)  = 60.00
% Column 1:  PSU1 nominal voltage setting (V)
% Column 2:  PSU1 nominal current setting (A)
% Column 3:  PSU1 voltage measurement (V)
% Column 4:  PSU1 current measurement (I)
% Column 5:  PSU1 limiter flag
% Column 6:  PSU2 nominal voltage setting (V)
% Column 7:  PSU2 nominal current setting (A)
% Column 8:  PSU2 voltage measurement (V)
% Column 9:  PSU2 current measurement (I)
% Column 10: PSU2 limiter flag
% Column 11: Heaterblock temperature (Â°C)
% * OPERATING POINT AT END OF PREHEAT / IDLE: U0=10.000 V  I0=0.500 A  Uc=3.407 V  Ic=0.002 A  T=60.00
  0.000000  15.000000   0.000000   0.000000     0   3.200000   1.000000   3.200000   0.002000     0 60.00
  1.000000  15.000000   1.000000   0.193000     0   3.200000   1.000000   3.200000   0.002000     0 60.00
  2.000000  15.000000   2.000000   0.196000     0   3.200000   1.000000   3.200000   0.002000     0 60.00
  3.000000  15.000000   3.000000   0.197000     0   3.200000   1.000000   3.200000   0.002000     0 60.00
  4.000000  15.000000   4.000000   0.197000     0   3.200000   1.000000   3.200000   0.002000     0 60.00
  5.000000  15.000000   5.000000   0.198000     0   3.200000   1.000000   3.200000   0.002000     0 60.06
  6.000000  15.000000   6.000000   0.199000     0   3.200000   1.000000   3.200000   0.002000     0 60.06
  7.000000  14.285714   7.000000   0.199000     0   3.200000   1.000000   3.200000   0.002000     0 60.00
  8.000000  12.500000   8.000000   0.200000     0   3.200000   1.000000   3.200000   0.002000     0 60.00
  9.000000  11.111111   9.000000   0.201000     0   3.200000   1.000000   3.200000   0.002000     0 60.00
 10.000000  10.000000  10.000000   0.202000     0   3.200000   1.000000   3.200000   0.002000     0 60.06
 11.000000   9.090909  11.000000   0.202000     0   3.200000   1.000000   3.200000   0.002000     0 60.00
 12.000000   8.333333  12.000000   0.203000     0   3.200000   1.000000   3.200000   0.002000     0 60.00
 13.000000   7.692308  13.000000   0.204000     0   3.200000   1.000000   3.200000   0.002000     0 60.00
 14.000000   7.142857  14.000000   0.204000     0   3.200000   1.000000   3.200000   0.002000     0 60.00
 15.000000   6.666667  15.000000   0.205000     0   3.200000   1.000000   3.200000   0.002000     0 60.00
 16.000000   6.250000  16.000000   0.206000     0   3.200000   1.000000   3.200000   0.002000     0 60.06
 17.000000   5.882353  17.000000   0.206000     0   3.200000   1.000000   3.200000   0.002000     0 60.06
 18.000000   5.555556  18.000000   0.207000     0   3.200000   1.000000   3.200000   0.002000     0 60.00
 19.000000   5.263158  19.000000   0.207000     0   3.200000   1.000000   3.200000   0.002000     0 60.00
 20.000000   5.000000  20.000000   0.208000     0   3.200000   1.000000   3.200000   0.002000     0 60.00
  0.000000  15.000000   0.000000   0.001000     0   3.300000   1.000000   3.300000   0.002000     0 60.00
  1.000000  15.000000   1.000000   0.307000     0   3.300000   1.000000   3.300000   0.002000     0 60.00
  2.000000  15.000000   2.000000   0.311000     0   3.300000   1.000000   3.300000   0.002000     0 60.00
  3.000000  15.000000   3.000000   0.313000     0   3.300000   1.000000   3.300000   0.002000     0 60.00
  4.000000  15.000000   4.000000   0.314000     0   3.300000   1.000000   3.300000   0.002000     0 60.00
  5.000000  15.000000   5.000000   0.315000     0   3.300000   1.000000   3.300000   0.002000     0 60.00
  6.000000  15.000000   6.000000   0.317000     0   3.300000   1.000000   3.300000   0.002000     0 60.00
  7.000000  14.285714   7.000000   0.318000     0   3.300000   1.000000   3.300000   0.002000     0 60.00
  8.000000  12.500000   8.000000   0.320000     0   3.300000   1.000000   3.300000   0.002000     0 60.00
  9.000000  11.111111   9.000000   0.321000     0   3.300000   1.000000   3.300000   0.002000     0 60.00
 10.000000  10.000000  10.000000   0.322000     0   3.300000   1.000000   3.300000   0.002000     0 60.00
 11.000000   9.090909  11.000000   0.323000     0   3.300000   1.000000   3.300000   0.002000     0 60.00
 12.000000   8.333333  12.000000   0.325000     0   3.300000   1.000000   3.300000   0.002000     0 60.00
 13.000000   7.692308  13.000000   0.326000     0   3.300000   1.000000   3.300000   0.002000     0 60.00
 14.000000   7.142857  14.000000   0.327000     0   3.300000   1.000000   3.300000   0.002000     0 60.00
 15.000000   6.666667  15.000000   0.328000     0   3.300000   1.000000   3.300000   0.002000     0 60.00
 16.000000   6.250000  16.000000   0.329000     0   3.300000   1.000000   3.300000   0.002000     0 60.06
 17.000000   5.882353  17.000000   0.330000     0   3.300000   1.000000   3.300000   0.002000     0 60.00
 18.000000   5.555556  18.000000   0.332000     0   3.300000   1.000000   3.300000   0.002000     0 60.00
 19.000000   5.263158  19.000000   0.333000     0   3.300000   1.000000   3.300000   0.002000     0 60.00
 20.000000   5.000000  20.000000   0.335000     0   3.300000   1.000000   3.300000   0.002000     0 60.00
  0.000000  15.000000   0.000000   0.002000     0   3.400000   1.000000   3.400000   0.002000     0 60.00
  1.000000  15.000000   1.000000   0.462000     0   3.400000   1.000000   3.400000   0.002000     0 59.94
  2.000000  15.000000   2.000000   0.467000     0   3.400000   1.000000   3.400000   0.002000     0 59.94
  3.000000  15.000000   3.000000   0.471000     0   3.400000   1.000000   3.400000   0.002000     0 60.00
  4.000000  15.000000   4.000000   0.473000     0   3.400000   1.000000   3.400000   0.002000     0 60.00
  5.000000  15.000000   5.000000   0.475000     0   3.400000   1.000000   3.400000   0.002000     0 60.00
  6.000000  15.000000   6.000000   0.478000     0   3.400000   1.000000   3.400000   0.002000     0 60.06
  7.000000  14.285714   7.000000   0.480000     0   3.400000   1.000000   3.400000   0.002000     0 60.06
  8.000000  12.500000   8.000000   0.483000     0   3.400000   1.000000   3.400000   0.002000     0 60.06
  9.000000  11.111111   9.000000   0.484000     0   3.400000   1.000000   3.400000   0.002000     0 60.00
 10.000000  10.000000  10.000000   0.487000     0   3.400000   1.000000   3.400000   0.002000     0 60.00
 11.000000   9.090909  11.000000   0.489000     0   3.400000   1.000000   3.400000   0.002000     0 60.00
 12.000000   8.333333  12.000000   0.491000     0   3.400000   1.000000   3.400000   0.002000     0 60.06
 13.000000   7.692308  13.000000   0.493000     0   3.400000   1.000000   3.400000   0.002000     0 60.06
 14.000000   7.142857  14.000000   0.495000     0   3.400000   1.000000   3.400000   0.002000     0 60.00
 15.000000   6.666667  15.000000   0.498000     0   3.400000   1.000000   3.400000   0.002000     0 60.00
 16.000000   6.250000  16.000000   0.500000     0   3.400000   1.000000   3.400000   0.002000     0 60.00
 17.000000   5.882353  17.000000   0.503000     0   3.400000   1.000000   3.400000   0.002000     0 60.00
 18.000000   5.555556  18.000000   0.505000     0   3.400000   1.000000   3.400000   0.002000     0 60.00
 19.000000   5.263158  19.000000   0.508000     0   3.400000   1.000000   3.400000   0.002000     0 60.00
 20.000000   5.000000  20.000000   0.511000     0   3.400000   1.000000   3.400000   0.002000     0 60.00
  0.000000  15.000000   0.000000   0.004000     0   3.500000   1.000000   3.500000   0.002000     0 60.00
  1.000000  15.000000   1.000000   0.663000     0   3.500000   1.000000   3.500000   0.002000     0 59.94
  2.000000  15.000000   2.000000   0.673000     0   3.500000   1.000000   3.500000   0.002000     0 59.94
  3.000000  15.000000   3.000000   0.678000     0   3.500000   1.000000   3.500000   0.002000     0 60.00
  4.000000  15.000000   4.000000   0.682000     0   3.500000   1.000000   3.500000   0.002000     0 60.00
  5.000000  15.000000   5.000000   0.687000     0   3.500000   1.000000   3.500000   0.002000     0 60.00
  6.000000  15.000000   6.000000   0.690000     0   3.500000   1.000000   3.500000   0.002000     0 60.06
  7.000000  14.285714   7.000000   0.694000     0   3.500000   1.000000   3.500000   0.002000     0 60.06
  8.000000  12.500000   8.000000   0.698000     0   3.500000   1.000000   3.500000   0.002000     0 60.00
  9.000000  11.111111   9.000000   0.701000     0   3.500000   1.000000   3.500000   0.002000     0 60.06
 10.000000  10.000000  10.000000   0.705000     0   3.500000   1.000000   3.500000   0.002000     0 60.06
 11.000000   9.090909  11.000000   0.709000     0   3.500000   1.000000   3.500000   0.002000     0 60.00
 12.000000   8.333333  12.000000   0.713000     0   3.500000   1.000000   3.500000   0.002000     0 60.00
 13.000000   7.692308  13.000000   0.717000     0   3.500000   1.000000   3.500000   0.002000     0 60.00
 14.000000   7.142857  14.000000   0.721000     0   3.500000   1.000000   3.500000   0.002000     0 60.00
 15.000000   6.666667  15.000000   0.726000     0   3.500000   1.000000   3.500000   0.002000     0 60.06
 16.000000   6.250000  16.000000   0.730000     0   3.500000   1.000000   3.500000   0.002000     0 60.00
 17.000000   5.882353  17.000000   0.734000     0   3.500000   1.000000   3.500000   0.002000     0 60.00
 18.000000   5.555556  18.000000   0.738000     0   3.500000   1.000000   3.500000   0.002000     0 60.00
 19.000000   5.263158  19.000000   0.743000     0   3.500000   1.000000   3.500000   0.002000     0 60.00
 20.000000   5.000000  20.000000   0.747000     0   3.500000   1.000000   3.500000   0.002000     0 60.00
  0.000000  15.000000   0.000000   0.005000     0   3.600000   1.000000   3.600000   0.002000     0 59.94
  1.000000  15.000000   1.000000   0.919000     0   3.600000   1.000000   3.600000   0.002000     0 59.88
  2.000000  15.000000   2.000000   0.934000     0   3.600000   1.000000   3.600000   0.002000     0 59.88
  3.000000  15.000000   3.000000   0.943000     0   3.600000   1.000000   3.600000   0.002000     0 60.00
  4.000000  15.000000   4.000000   0.950000     0   3.600000   1.000000   3.600000   0.002000     0 60.00
  5.000000  15.000000   5.000000   0.957000     0   3.600000   1.000000   3.600000   0.002000     0 60.06
  6.000000  15.000000   6.000000   0.962000     0   3.600000   1.000000   3.600000   0.002000     0 60.06
  7.000000  14.285714   7.000000   0.969000     0   3.600000   1.000000   3.600000   0.002000     0 60.00
  8.000000  12.500000   8.000000   0.975000     0   3.600000   1.000000   3.600000   0.002000     0 60.06
  9.000000  11.111111   9.000000   0.981000     0   3.600000   1.000000   3.600000   0.002000     0 60.06
 10.000000  10.000000  10.000000   0.987667     0   3.600000   1.000000   3.600000   0.002000     0 60.00
 11.000000   9.090909  11.000000   0.994000     0   3.600000   1.000000   3.600000   0.002000     0 60.00
 12.000000   8.333333  12.000000   1.000667     0   3.600000   1.000000   3.600000   0.002000     0 60.00
 13.000000   7.692308  13.000000   1.007333     0   3.600000   1.000000   3.600000   0.002000     0 60.00
 14.000000   7.142857  14.000000   1.014000     0   3.600000   1.000000   3.600000   0.002000     0 60.00
 15.000000   6.666667  15.000000   1.021667     0   3.600000   1.000000   3.600000   0.002000     0 60.00
 16.000000   6.250000  16.000000   1.028667     0   3.600000   1.000000   3.600000   0.002000     0 60.00
 17.000000   5.882353  17.000000   1.035667     0   3.600000   1.000000   3.600000   0.002000     0 60.00
 18.000000   5.555556  18.000000   1.043333     0   3.600000   1.000000   3.600000   0.002000     0 60.00
 19.000000   5.263158  19.000000   1.051000     0   3.600000   1.000000   3.600000   0.002000     0 60.00
 20.000000   5.000000  20.000000   1.058000     0   3.600000   1.000000   3.600000   0.002000     0 60.00
  0.000000  15.000000   0.000000   0.007000     0   3.700000   1.000000   3.700000   0.003000     0 59.94
  1.000000  15.000000   1.000000   1.229000     0   3.700000   1.000000   3.700000   0.002000     0 59.81
  2.000000  15.000000   2.000000   1.254000     0   3.700000   1.000000   3.700000   0.003000     0 59.88
  3.000000  15.000000   3.000000   1.267000     0   3.700000   1.000000   3.700000   0.002000     0 60.00
  4.000000  15.000000   4.000000   1.277000     0   3.700000   1.000000   3.700000   0.002000     0 60.06
  5.000000  15.000000   5.000000   1.287000     0   3.700000   1.000000   3.700000   0.003000     0 60.06
  6.000000  15.000000   6.000000   1.296000     0   3.700000   1.000000   3.700000   0.002000     0 60.00
  7.000000  14.285714   7.000000   1.306000     0   3.700000   1.000000   3.700000   0.003000     0 60.00
  8.000000  12.500000   8.000000   1.316000     0   3.700000   1.000000   3.700000   0.002000     0 60.00
  9.000000  11.111111   9.000000   1.326000     0   3.700000   1.000000   3.700000   0.002000     0 60.06
 10.000000  10.000000  10.000000   1.336000     0   3.700000   1.000000   3.700000   0.003000     0 60.00
 11.000000   9.090909  11.000000   1.346000     0   3.700000   1.000000   3.700000   0.002000     0 60.00
 12.000000   8.333333  12.000000   1.357000     0   3.700000   1.000000   3.700000   0.002000     0 60.00
 13.000000   7.692308  13.000000   1.368000     0   3.700000   1.000000   3.700000   0.003000     0 60.00
 14.000000   7.142857  14.000000   1.379000     0   3.700000   1.000000   3.700000   0.002000     0 60.00
 15.000000   6.666667  15.000000   1.390667     0   3.700000   1.000000   3.700000   0.003000     0 60.00
 16.000000   6.250000  16.000000   1.402000     0   3.700000   1.000000   3.700000   0.003000     0 60.00
 17.000000   5.882353  17.000000   1.414000     0   3.700000   1.000000   3.700000   0.002000     0 60.00
 18.000000   5.555556  18.000000   1.426000     0   3.700000   1.000000   3.700000   0.003000     0 60.00
 19.000000   5.263158  19.000000   1.438667     0   3.700000   1.000000   3.700000   0.002000     0 60.00
 20.000000   5.000000  20.000000   1.451667     0   3.700000   1.000000   3.700000   0.002000     0 60.00
  0.000000  15.000000   0.000000   0.008000     0   3.800000   1.000000   3.800000   0.003000     0 59.94
  1.000000  15.000000   1.000000   1.600000     0   3.800000   1.000000   3.800000   0.003000     0 59.75
  2.000000  15.000000   2.000000   1.638000     0   3.800000   1.000000   3.800000   0.003000     0 59.81
  3.000000  15.000000   3.000000   1.657000     0   3.800000   1.000000   3.800000   0.003000     0 60.00
  4.000000  15.000000   4.000000   1.673000     0   3.800000   1.000000   3.800000   0.003000     0 60.06
  5.000000  15.000000   5.000000   1.687000     0   3.800000   1.000000   3.800000   0.003000     0 60.06
  6.000000  15.000000   6.000000   1.701000     0   3.800000   1.000000   3.800000   0.003000     0 60.00
  7.000000  14.285714   7.000000   1.716000     0   3.800000   1.000000   3.800000   0.003000     0 60.00
  8.000000  12.500000   8.000000   1.731000     0   3.800000   1.000000   3.800000   0.003000     0 60.06
  9.000000  11.111111   9.000000   1.746000     0   3.800000   1.000000   3.800000   0.003000     0 60.06
 10.000000  10.000000  10.000000   1.762000     0   3.800000   1.000000   3.800000   0.003000     0 60.00
 11.000000   9.090909  11.000000   1.778000     0   3.800000   1.000000   3.800000   0.003000     0 60.06
 12.000000   8.333333  12.000000   1.794333     0   3.800000   1.000000   3.800000   0.003000     0 60.06
 13.000000   7.692308  13.000000   1.811000     0   3.800000   1.000000   3.800000   0.003000     0 60.00
 14.000000   7.142857  14.000000   1.828000     0   3.800000   1.000000   3.800000   0.003000     0 60.00
 15.000000   6.666667  15.000000   1.846000     0   3.800000   1.000000   3.800000   0.003000     0 60.00
 16.000000   6.250000  16.000000   1.864333     0   3.800000   1.000000   3.800000   0.003000     0 60.00
 17.000000   5.882353  17.000000   1.883000     0   3.800000   1.000000   3.800000   0.003000     0 60.00
 18.000000   5.555556  18.000000   1.901667     0   3.800000   1.000000   3.800000   0.003000     0 60.00
 19.000000   5.263158  19.000000   1.921667     0   3.800000   1.000000   3.800000   0.003000     0 60.00
 20.000000   5.000000  20.000000   1.943667     0   3.800000   1.000000   3.800000   0.003000     0 60.00
  0.000000  15.000000   0.000000   0.009000     0   3.900000   1.000000   3.900000   0.003000     0 59.88
  1.000000  15.000000   1.000000   2.036000     0   3.900000   1.000000   3.900000   0.003000     0 59.69
  2.000000  15.000000   2.000000   2.095000     0   3.900000   1.000000   3.900000   0.003000     0 59.75
  3.000000  15.000000   3.000000   2.123000     0   3.900000   1.000000   3.900000   0.003000     0 59.94
  4.000000  15.000000   4.000000   2.145000     0   3.900000   1.000000   3.900000   0.003000     0 60.06
  5.000000  15.000000   5.000000   2.166000     0   3.900000   1.000000   3.900000   0.003000     0 60.06
  6.000000  15.000000   6.000000   2.187000     0   3.900000   1.000000   3.900000   0.003000     0 60.06
  7.000000  14.285714   7.000000   2.208000     0   3.900000   1.000000   3.900000   0.003000     0 60.00
  8.000000  12.500000   8.000000   2.230000     0   3.900000   1.000000   3.900000   0.003000     0 60.06
  9.000000  11.111111   9.000000   2.252333     0   3.900000   1.000000   3.900000   0.003000     0 60.06
 10.000000  10.000000  10.000000   2.276000     0   3.900000   1.000000   3.900000   0.003000     0 60.06
 11.000000   9.090909  11.000000   2.300000     0   3.900000   1.000000   3.900000   0.003000     0 60.06
 12.000000   8.333333  12.000000   2.324667     0   3.900000   1.000000   3.900000   0.003000     0 60.00
 13.000000   7.692308  13.000000   2.350000     0   3.900000   1.000000   3.900000   0.003000     0 60.00
 14.000000   7.142857  14.000000   2.375333     0   3.900000   1.000000   3.900000   0.003000     0 60.00
 15.000000   6.666667  15.000000   2.402667     0   3.900000   1.000000   3.900000   0.003000     0 60.00
 16.000000   6.250000  16.000000   2.430333     0   3.900000   1.000000   3.900000   0.003000     0 60.00
 17.000000   5.882353  17.000000   2.459667     0   3.900000   1.000000   3.900000   0.003000     0 60.00
 18.000000   5.555556  18.000000   2.490000     0   3.900000   1.000000   3.900000   0.003000     0 60.06
 19.000000   5.263158  19.000000   2.520000     0   3.900000   1.000000   3.900000   0.003000     0 60.00
 20.000000   5.000000  20.000000   2.551333     0   3.900000   1.000000   3.900000   0.003000     0 60.00
  0.000000  15.000000   0.000000   0.003000     0   4.000000   1.000000   4.000000   0.003000     0 59.88
  1.000000  15.000000   1.000000   2.529000     0   4.000000   1.000000   4.000000   0.003000     0 59.56
  2.000000  15.000000   2.000000   2.623000     0   4.000000   1.000000   4.000000   0.003000     0 59.69
  3.000000  15.000000   3.000000   2.661000     0   4.000000   1.000000   4.000000   0.003000     0 60.00
  4.000000  15.000000   4.000000   2.692000     0   4.000000   1.000000   4.000000   0.003000     0 60.06
  5.000000  15.000000   5.000000   2.720000     0   4.000000   1.000000   4.000000   0.003000     0 60.06
  6.000000  15.000000   6.000000   2.750000     0   4.000000   1.000000   4.000000   0.003000     0 60.06
  7.000000  14.285714   7.000000   2.780000     0   4.000000   1.000000   4.000000   0.003000     0 60.06
  8.000000  12.500000   8.000000   2.812000     0   4.000000   1.000000   4.000000   0.003000     0 60.06
  9.000000  11.111111   9.000000   2.844000     0   4.000000   1.000000   4.000000   0.003000     0 60.06
 10.000000  10.000000  10.000000   2.877000     0   4.000000   1.000000   4.000000   0.003000     0 60.06
 11.000000   9.090909  11.000000   2.911667     0   4.000000   1.000000   4.000000   0.003000     0 60.06
 12.000000   8.333333  12.000000   2.946333     0   4.000000   1.000000   4.000000   0.003000     0 60.06
 13.000000   7.692308  13.000000   2.983333     0   4.000000   1.000000   4.000000   0.003000     0 60.06
 14.000000   7.142857  14.000000   3.021333     0   4.000000   1.000000   4.000000   0.003000     0 60.00
 15.000000   6.666667  15.000000   3.060667     0   4.000000   1.000000   4.000000   0.003000     0 60.00
 16.000000   6.250000  16.000000   3.101333     0   4.000000   1.000000   4.000000   0.003000     0 60.00
 17.000000   5.882353  17.000000   3.148667     0   4.000000   1.000000   4.000000   0.003000     0 60.12
 18.000000   5.555556  18.000000   3.189333     0   4.000000   1.000000   4.000000   0.003000     0 60.06
 19.000000   5.263158  19.000000   3.238667     0   4.000000   1.000000   4.000000   0.003000     0 60.00
 20.000000   5.000000  20.000000   3.282333     0   4.000000   1.000000   4.000000   0.003000     0 60.00
  0.000000  15.000000   0.000000   0.003000     0   4.100000   1.000000   4.100000   0.003000     0 59.81
  1.000000  15.000000   1.000000   3.073000     0   4.100000   1.000000   4.100000   0.003000     0 59.44
  2.000000  15.000000   2.000000   3.225000     0   4.100000   1.000000   4.100000   0.003000     0 59.62
  3.000000  15.000000   3.000000   3.276000     0   4.100000   1.000000   4.100000   0.003000     0 59.94
  4.000000  15.000000   4.000000   3.319000     0   4.100000   1.000000   4.100000   0.003000     0 60.06
  5.000000  15.000000   5.000000   3.358000     0   4.100000   1.000000   4.100000   0.003000     0 60.06
  6.000000  15.000000   6.000000   3.397000     0   4.100000   1.000000   4.100000   0.003000     0 60.06
  7.000000  14.285714   7.000000   3.438000     0   4.100000   1.000000   4.100000   0.003000     0 60.00
  8.000000  12.500000   8.000000   3.481000     0   4.100000   1.000000   4.100000   0.003000     0 60.00
  9.000000  11.111111   9.000000   3.525333     0   4.100000   1.000000   4.100000   0.003000     0 60.06
 10.000000  10.000000  10.000000   3.571667     0   4.100000   1.000000   4.100000   0.003000     0 60.06
 11.000000   9.090909  11.000000   3.619333     0   4.100000   1.000000   4.100000   0.003000     0 60.06
 12.000000   8.333333  12.000000   3.668333     0   4.100000   1.000000   4.100000   0.003000     0 60.06
 13.000000   7.692308  13.000000   3.721000     0   4.100000   1.000000   4.100000   0.003000     0 60.06
 14.000000   7.142857  14.000000   3.771667     0   4.100000   1.000000   4.100000   0.003000     0 60.00
 15.000000   6.666667  15.000000   3.831000     0   4.100000   1.000000   4.100000   0.003000     0 60.06
 16.000000   6.250000  16.000000   3.887333     0   4.100000   1.000000   4.100000   0.003000     0 60.06
 17.000000   5.882353  17.000000   3.946333     0   4.100000   1.000000   4.100000   0.003000     0 60.00
 18.000000   5.555556  18.000000   4.014000     0   4.100000   1.000000   4.100000   0.003000     0 60.00
 19.000000   5.263158  19.000000   4.076333     0   4.100000   1.000000   4.100000   0.003000     0 60.06
 20.000000   5.000000  20.000000   4.156000     0   4.100000   1.000000   4.100000   0.003000     0 60.12
  0.000000  15.000000   0.000000   0.002000     0   4.200000   1.000000   4.200000   0.003000     0 59.81
  1.000000  15.000000   1.000000   3.646000     0   4.200000   1.000000   4.200000   0.003000     0 59.25
  2.000000  15.000000   2.000000   3.894000     0   4.200000   1.000000   4.200000   0.003000     0 59.50
  3.000000  15.000000   3.000000   3.963000     0   4.200000   1.000000   4.200000   0.003000     0 59.94
  4.000000  15.000000   4.000000   4.018667     0   4.200000   1.000000   4.200000   0.003000     0 60.06
  5.000000  15.000000   5.000000   4.069000     0   4.200000   1.000000   4.200000   0.003000     0 60.12
  6.000000  15.000000   6.000000   4.120000     0   4.200000   1.000000   4.200000   0.003000     0 60.06
  7.000000  14.285714   7.000000   4.173333     0   4.200000   1.000000   4.200000   0.003000     0 60.06
  8.000000  12.500000   8.000000   4.230000     0   4.200000   1.000000   4.200000   0.003000     0 60.06
  9.000000  11.111111   9.000000   4.288333     0   4.200000   1.000000   4.200000   0.003000     0 60.06
 10.000000  10.000000  10.000000   4.350000     0   4.200000   1.000000   4.200000   0.003000     0 60.06
 11.000000   9.090909  11.000000   4.413000     0   4.200000   1.000000   4.200000   0.003000     0 60.12
 12.000000   8.333333  12.000000   4.477333     0   4.200000   1.000000   4.200000   0.003000     0 60.06
 13.000000   7.692308  13.000000   4.549333     0   4.200000   1.000000   4.200000   0.003000     0 60.06
 14.000000   7.142857  14.000000   4.617667     0   4.200000   1.000000   4.200000   0.003000     0 60.06
 15.000000   6.666667  15.000000   4.698333     0   4.200000   1.000000   4.200000   0.003000     0 60.06
 16.000000   6.250000  16.000000   4.784000     0   4.200000   1.000000   4.200000   0.003000     0 60.12
 17.000000   5.882353  17.000000   4.863333     0   4.200000   1.000000   4.200000   0.003000     0 60.19
 18.000000   5.555556  18.000000   4.954667     0   4.200000   1.000000   4.200000   0.003000     0 60.12
 19.000000   5.263158  19.000000   5.030667     0   4.200000   1.000000   4.200000   0.003000     0 60.00
 20.000000   5.000000  18.640000   4.998000     1   4.200000   1.000000   4.200000   0.003000     0 59.88
  0.000000  15.000000   0.000000   0.000000     0   4.300000   1.000000   4.300000   0.003000     0 59.56
  1.000000  15.000000   1.000000   4.241000     0   4.300000   1.000000   4.300000   0.003000     0 59.19
  2.000000  15.000000   2.000000   4.643667     0   4.300000   1.000000   4.300000   0.003000     0 59.50
  3.000000  15.000000   3.000000   4.730000     0   4.300000   1.000000   4.300000   0.003000     0 59.94
  4.000000  15.000000   4.000000   4.799000     0   4.300000   1.000000   4.300000   0.003000     0 60.12
  5.000000  15.000000   5.000000   4.863000     0   4.300000   1.000000   4.300000   0.003000     0 60.12
  6.000000  15.000000   6.000000   4.928000     0   4.300000   1.000000   4.300000   0.003000     0 60.06
  7.000000  14.285714   7.000000   4.996667     0   4.300000   1.000000   4.300000   0.003000     0 60.06
  8.000000  12.500000   8.000000   5.070000     0   4.300000   1.000000   4.300000   0.003000     0 60.06
  9.000000  11.111111   9.000000   5.145000     0   4.300000   1.000000   4.300000   0.003000     0 60.06
 10.000000  10.000000  10.000000   5.223000     0   4.300000   1.000000   4.300000   0.003000     0 60.06
 11.000000   9.090909  11.000000   5.303667     0   4.300000   1.000000   4.300000   0.003000     0 60.12
 12.000000   8.333333  12.000000   5.388333     0   4.300000   1.000000   4.300000   0.003000     0 60.06
 13.000000   7.692308  13.000000   5.475333     0   4.300000   1.000000   4.300000   0.003000     0 60.06
 14.000000   7.142857  14.000000   5.570333     0   4.300000   1.000000   4.300000   0.003000     0 60.06
 15.000000   6.666667  15.000000   5.675333     0   4.300000   1.000000   4.300000   0.003000     0 60.19
 16.000000   6.250000  16.000000   5.786667     0   4.300000   1.000000   4.300000   0.003000     0 60.19
 17.000000   5.882353  16.964000   5.881333     1   4.300000   1.000000   4.300000   0.003000     0 60.06
  0.000000  15.000000   0.000000   0.000000     0   4.400000   1.000000   4.400000   0.003000     0 59.38
  1.000000  15.000000   1.000000   4.811667     0   4.400000   1.000000   4.400000   0.003000     0 59.25
  2.000000  15.000000   2.000000   5.459000     0   4.400000   1.000000   4.400000   0.003000     0 59.62
  3.000000  15.000000   3.000000   5.565000     0   4.400000   1.000000   4.400000   0.003000     0 60.00
  4.000000  15.000000   4.000000   5.648667     0   4.400000   1.000000   4.400000   0.003000     0 60.19
  5.000000  15.000000   5.000000   5.728000     0   4.400000   1.000000   4.400000   0.003000     0 60.12
  6.000000  15.000000   6.000000   5.809000     0   4.400000   1.000000   4.400000   0.003000     0 60.06
  7.000000  14.285714   7.000000   5.894000     0   4.400000   1.000000   4.400000   0.003000     0 60.06
  8.000000  12.500000   8.000000   5.983333     0   4.400000   1.000000   4.400000   0.003000     0 60.06
  9.000000  11.111111   9.000000   6.076000     0   4.400000   1.000000   4.400000   0.003000     0 60.12
 10.000000  10.000000  10.000000   6.172333     0   4.400000   1.000000   4.400000   0.003000     0 60.12
 11.000000   9.090909  11.000000   6.274667     0   4.400000   1.000000   4.400000   0.003000     0 60.12
 12.000000   8.333333  12.000000   6.381333     0   4.400000   1.000000   4.400000   0.003000     0 60.06
 13.000000   7.692308  13.000000   6.501000     0   4.400000   1.000000   4.400000   0.003000     0 60.19
 14.000000   7.142857  14.000000   6.607333     0   4.400000   1.000000   4.400000   0.003000     0 60.06
 15.000000   6.666667  14.460000   6.665000     1   4.400000   1.000000   4.400000   0.003000     0 59.94
