% * Sample: MJL21194_7
% * Date / time: 2023-12-09 18:03:45.475872
% * R2CONTROL =  2093.0 Ohm
% Column 1:  PSU1 nominal voltage setting (V)
% Column 2:  PSU1 nominal current setting (A)
% Column 3:  PSU1 voltage measurement (V)
% Column 4:  PSU1 current measurement (I)
% Column 5:  PSU1 limiter flag
% Column 6:  PSU2 nominal voltage setting (V)
% Column 7:  PSU2 nominal current setting (A)
% Column 8:  PSU2 voltage measurement (V)
% Column 9:  PSU2 current measurement (I)
% Column 10: PSU2 limiter flag
% Column 11: Heaterblock temperature (°C)
% * OPERATING POINT AT END OF PREHEAT / IDLE: U1 = 12.000 V  I1 = 0.4999 A  U2 = 7.259 V  I2 = 0.0033 A  T = 50.06 °C
0.000 2.0000 0.000 0.0000 0 0.650 0.3000 0.650 0.0003 0 50.00
1.000 2.0000 1.000 0.0081 0 0.650 0.3000 0.650 0.0002 0 50.00
2.000 2.0000 2.001 0.0081 0 0.650 0.3000 0.649 0.0002 0 49.94
3.000 2.0000 3.000 0.0081 0 0.650 0.3000 0.650 0.0002 0 49.94
4.000 2.0000 4.001 0.0081 0 0.650 0.3000 0.650 0.0002 0 49.94
5.000 2.0000 5.001 0.0082 0 0.650 0.3000 0.650 0.0002 0 50.00
6.000 2.0000 6.001 0.0082 0 0.650 0.3000 0.650 0.0002 0 50.00
7.000 2.0000 7.001 0.0082 0 0.650 0.3000 0.650 0.0002 0 50.00
8.000 2.0000 7.999 0.0082 0 0.650 0.3000 0.650 0.0002 0 50.00
9.000 2.0000 8.999 0.0083 0 0.650 0.3000 0.650 0.0002 0 50.00
10.000 2.0000 10.000 0.0082 0 0.650 0.3000 0.650 0.0002 0 50.00
11.000 2.0000 10.999 0.0083 0 0.650 0.3000 0.650 0.0002 0 50.00
12.000 2.0000 12.000 0.0083 0 0.650 0.3000 0.650 0.0002 0 50.06
13.000 2.0000 12.999 0.0084 0 0.650 0.3000 0.650 0.0002 0 50.00
14.000 2.0000 13.999 0.0083 0 0.650 0.3000 0.650 0.0002 0 50.00
15.000 2.0000 14.999 0.0083 0 0.650 0.3000 0.650 0.0002 0 50.06
16.000 2.0000 15.999 0.0083 0 0.650 0.3000 0.649 0.0002 0 50.06
17.000 2.0000 16.999 0.0083 0 0.650 0.3000 0.650 0.0002 0 50.00
18.000 2.0000 17.999 0.0084 0 0.650 0.3000 0.650 0.0002 0 50.00
19.000 2.0000 18.999 0.0085 0 0.650 0.3000 0.650 0.0002 0 50.00
20.000 2.0000 20.000 0.0084 0 0.650 0.3000 0.650 0.0002 0 50.00
0.000 2.0000 0.001 0.0000 0 4.836 0.3000 4.836 0.0022 0 50.06
1.000 2.0000 1.000 0.3006 0 4.836 0.3000 4.836 0.0022 0 50.00
2.000 2.0000 2.001 0.3033 0 4.836 0.3000 4.836 0.0021 0 50.06
3.000 2.0000 3.000 0.3052 0 4.836 0.3000 4.836 0.0022 0 50.06
4.000 2.0000 4.001 0.3070 0 4.836 0.3000 4.836 0.0022 0 50.00
5.000 2.0000 5.001 0.3086 0 4.836 0.3000 4.836 0.0022 0 50.06
6.000 2.0000 6.001 0.3103 0 4.836 0.3000 4.836 0.0022 0 50.06
7.000 2.0000 7.000 0.3118 0 4.836 0.3000 4.836 0.0022 0 50.06
8.000 2.0000 7.999 0.3133 0 4.836 0.3000 4.836 0.0022 0 50.06
9.000 2.0000 9.000 0.3147 0 4.836 0.3000 4.836 0.0022 0 50.06
10.000 2.0000 10.000 0.3160 0 4.836 0.3000 4.836 0.0022 0 50.06
11.000 2.0000 10.999 0.3174 0 4.836 0.3000 4.836 0.0022 0 50.06
12.000 2.0000 12.000 0.3187 0 4.836 0.3000 4.836 0.0022 0 50.06
13.000 2.0000 12.999 0.3201 0 4.836 0.3000 4.836 0.0022 0 50.06
14.000 2.0000 13.999 0.3215 0 4.836 0.3000 4.836 0.0022 0 50.06
15.000 2.0000 14.999 0.3228 0 4.836 0.3000 4.836 0.0022 0 50.06
16.000 2.0000 15.999 0.3241 0 4.836 0.3000 4.836 0.0022 0 50.06
17.000 2.0000 17.000 0.3254 0 4.836 0.3000 4.836 0.0022 0 50.06
18.000 2.0000 17.999 0.3267 0 4.836 0.3000 4.836 0.0022 0 50.06
19.000 2.0000 18.999 0.3280 0 4.836 0.3000 4.836 0.0022 0 50.06
20.000 2.0000 19.999 0.3293 0 4.836 0.3000 4.836 0.0022 0 50.06
0.000 2.0000 0.001 0.0000 0 9.022 0.3000 9.021 0.0042 0 50.06
1.000 2.0000 1.000 0.5803 0 9.022 0.3000 9.021 0.0042 0 50.00
2.000 2.0000 2.001 0.5870 0 9.022 0.3000 9.021 0.0041 0 49.94
3.000 2.0000 3.000 0.5920 0 9.022 0.3000 9.021 0.0041 0 49.94
4.000 2.0000 4.001 0.5964 0 9.022 0.3000 9.021 0.0042 0 49.94
5.000 2.0000 5.001 0.6006 0 9.022 0.3000 9.021 0.0041 0 50.00
6.000 2.0000 6.000 0.6045 0 9.022 0.3000 9.021 0.0042 0 50.00
7.000 2.0000 7.001 0.6083 0 9.022 0.3000 9.021 0.0042 0 50.00
8.000 2.0000 8.000 0.6120 0 9.022 0.3000 9.021 0.0041 0 50.00
9.000 2.0000 8.999 0.6157 0 9.022 0.3000 9.021 0.0042 0 50.06
10.000 2.0000 10.000 0.6192 0 9.022 0.3000 9.021 0.0041 0 50.06
11.000 2.0000 10.999 0.6227 0 9.022 0.3000 9.021 0.0041 0 50.06
12.000 2.0000 11.999 0.6262 0 9.022 0.3000 9.021 0.0041 0 50.06
13.000 2.0000 12.998 0.6296 0 9.022 0.3000 9.021 0.0042 0 50.06
14.000 2.0000 13.999 0.6329 0 9.022 0.3000 9.021 0.0041 0 50.06
15.000 2.0000 14.999 0.6363 0 9.022 0.3000 9.021 0.0041 0 50.06
16.000 2.0000 15.999 0.6398 0 9.022 0.3000 9.021 0.0041 0 50.06
17.000 2.0000 16.999 0.6432 0 9.022 0.3000 9.021 0.0041 0 50.06
18.000 2.0000 17.999 0.6466 0 9.022 0.3000 9.021 0.0042 0 50.06
19.000 2.0000 18.999 0.6499 0 9.022 0.3000 9.021 0.0041 0 50.06
20.000 2.0000 19.999 0.6534 0 9.022 0.3000 9.021 0.0042 0 50.06
0.000 2.0000 0.001 0.0000 0 13.208 0.3000 13.208 0.0062 0 50.06
1.000 2.0000 1.000 0.8293 0 13.208 0.3000 13.208 0.0062 0 49.94
2.000 2.0000 2.001 0.8448 0 13.208 0.3000 13.208 0.0061 0 49.88
3.000 2.0000 3.000 0.8534 0 13.208 0.3000 13.208 0.0062 0 49.88
4.000 2.0000 4.001 0.8610 0 13.208 0.3000 13.208 0.0061 0 49.88
5.000 2.0000 5.001 0.8679 0 13.208 0.3000 13.208 0.0062 0 49.94
6.000 2.0000 6.000 0.8746 0 13.208 0.3000 13.208 0.0061 0 49.94
7.000 2.0000 7.001 0.8810 0 13.208 0.3000 13.208 0.0061 0 50.00
8.000 2.0000 7.999 0.8871 0 13.208 0.3000 13.208 0.0061 0 50.00
9.000 2.0000 8.999 0.8932 0 13.208 0.3000 13.207 0.0062 0 50.06
10.000 2.0000 10.000 0.8990 0 13.208 0.3000 13.208 0.0061 0 50.06
11.000 2.0000 10.999 0.9049 0 13.208 0.3000 13.207 0.0061 0 50.06
12.000 2.0000 12.000 0.9105 0 13.208 0.3000 13.208 0.0062 0 50.06
13.000 2.0000 12.999 0.9162 0 13.208 0.3000 13.208 0.0061 0 50.06
14.000 2.0000 13.999 0.9218 0 13.208 0.3000 13.208 0.0062 0 50.06
15.000 2.0000 14.999 0.9273 0 13.208 0.3000 13.207 0.0061 0 50.06
16.000 2.0000 15.999 0.9328 0 13.208 0.3000 13.207 0.0062 0 50.12
17.000 2.0000 16.999 0.9383 0 13.208 0.3000 13.208 0.0061 0 50.12
18.000 2.0000 17.999 0.9438 0 13.208 0.3000 13.207 0.0062 0 50.12
19.000 2.0000 18.999 0.9493 0 13.208 0.3000 13.207 0.0062 0 50.12
20.000 2.0000 19.999 0.9548 0 13.208 0.3000 13.207 0.0062 0 50.12
0.000 2.0000 0.002 0.0000 0 17.394 0.3000 17.393 0.0082 0 50.06
1.000 2.0000 1.000 1.0403 0 17.394 0.3000 17.394 0.0081 0 49.94
2.000 2.0000 2.000 1.0792 0 17.394 0.3000 17.394 0.0081 0 49.81
3.000 2.0000 3.000 1.0923 0 17.394 0.3000 17.394 0.0081 0 49.81
4.000 2.0000 4.001 1.1033 0 17.394 0.3000 17.394 0.0081 0 49.81
5.000 2.0000 5.001 1.1132 0 17.394 0.3000 17.394 0.0082 0 49.81
6.000 2.0000 6.001 1.1228 0 17.394 0.3000 17.394 0.0082 0 49.88
7.000 2.0000 7.000 1.1318 0 17.394 0.3000 17.394 0.0081 0 49.94
8.000 2.0000 7.999 1.1404 0 17.394 0.3000 17.393 0.0082 0 50.00
9.000 2.0000 9.000 1.1488 0 17.394 0.3000 17.394 0.0081 0 50.00
10.000 2.0000 10.000 1.1570 0 17.394 0.3000 17.393 0.0082 0 50.06
11.000 2.0000 10.999 1.1650 0 17.394 0.3000 17.394 0.0082 0 50.06
12.000 2.0000 12.000 1.1728 0 17.394 0.3000 17.393 0.0082 0 50.06
13.000 2.0000 12.999 1.1807 0 17.394 0.3000 17.394 0.0082 0 50.06
14.000 2.0000 13.999 1.1882 0 17.394 0.3000 17.394 0.0082 0 50.06
15.000 2.0000 14.999 1.1957 0 17.394 0.3000 17.394 0.0082 0 50.06
16.000 2.0000 15.999 1.2031 0 17.394 0.3000 17.394 0.0082 0 50.12
17.000 2.0000 17.000 1.2104 0 17.394 0.3000 17.394 0.0082 0 50.12
18.000 2.0000 17.999 1.2178 0 17.394 0.3000 17.394 0.0082 0 50.12
19.000 2.0000 18.999 1.2251 0 17.394 0.3000 17.394 0.0082 0 50.12
20.000 2.0000 19.999 1.2323 0 17.394 0.3000 17.394 0.0082 0 50.12
0.000 2.0000 0.002 0.0000 0 21.580 0.3000 21.580 0.0102 0 50.06
1.000 2.0000 1.000 1.2104 0 21.580 0.3000 21.579 0.0101 0 49.88
2.000 2.0000 2.001 1.2940 0 21.580 0.3000 21.580 0.0101 0 49.75
3.000 2.0000 3.000 1.3126 0 21.580 0.3000 21.579 0.0102 0 49.75
4.000 2.0000 4.001 1.3273 0 21.580 0.3000 21.580 0.0101 0 49.75
5.000 2.0000 5.001 1.3404 0 21.580 0.3000 21.580 0.0102 0 49.81
6.000 2.0000 6.001 1.3527 0 21.580 0.3000 21.580 0.0102 0 49.88
7.000 2.0000 7.001 1.3642 0 21.580 0.3000 21.579 0.0101 0 49.94
8.000 2.0000 8.000 1.3752 0 21.580 0.3000 21.579 0.0102 0 50.00
9.000 2.0000 9.000 1.3860 0 21.580 0.3000 21.580 0.0102 0 50.00
10.000 2.0000 10.000 1.3963 0 21.580 0.3000 21.579 0.0102 0 50.06
11.000 2.0000 10.999 1.4062 0 21.580 0.3000 21.579 0.0101 0 50.06
12.000 2.0000 12.000 1.4161 0 21.580 0.3000 21.580 0.0101 0 50.06
13.000 2.0000 12.999 1.4256 0 21.580 0.3000 21.579 0.0102 0 50.12
14.000 2.0000 13.999 1.4351 0 21.580 0.3000 21.580 0.0102 0 50.12
15.000 2.0000 14.999 1.4442 0 21.580 0.3000 21.579 0.0102 0 50.12
16.000 2.0000 15.999 1.4532 0 21.580 0.3000 21.579 0.0102 0 50.12
17.000 2.0000 16.999 1.4621 0 21.580 0.3000 21.579 0.0102 0 50.12
18.000 2.0000 17.999 1.4708 0 21.580 0.3000 21.580 0.0102 0 50.12
19.000 2.0000 18.999 1.4795 0 21.580 0.3000 21.579 0.0102 0 50.12
20.000 2.0000 20.000 1.4882 0 21.580 0.3000 21.579 0.0102 0 50.12
0.000 2.0000 0.002 0.0000 0 25.766 0.3000 25.766 0.0122 0 50.12
1.000 2.0000 1.000 1.3492 0 25.766 0.3000 25.766 0.0122 0 49.88
2.000 2.0000 2.001 1.4910 0 25.766 0.3000 25.766 0.0122 0 49.75
3.000 2.0000 3.000 1.5166 0 25.766 0.3000 25.766 0.0121 0 49.69
4.000 2.0000 4.001 1.5352 0 25.766 0.3000 25.767 0.0121 0 49.69
5.000 2.0000 5.001 1.5514 0 25.766 0.3000 25.766 0.0121 0 49.75
6.000 2.0000 6.001 1.5664 0 25.766 0.3000 25.766 0.0122 0 49.81
7.000 2.0000 7.000 1.5804 0 25.766 0.3000 25.766 0.0121 0 49.94
8.000 2.0000 8.000 1.5938 0 25.766 0.3000 25.766 0.0122 0 50.00
9.000 2.0000 8.999 1.6066 0 25.766 0.3000 25.766 0.0121 0 50.00
10.000 2.0000 10.000 1.6189 0 25.766 0.3000 25.766 0.0122 0 50.06
11.000 2.0000 10.999 1.6307 0 25.766 0.3000 25.766 0.0121 0 50.12
12.000 2.0000 12.000 1.6421 0 25.766 0.3000 25.766 0.0122 0 50.12
13.000 2.0000 12.999 1.6533 0 25.766 0.3000 25.766 0.0122 0 50.12
14.000 2.0000 13.999 1.6642 0 25.766 0.3000 25.766 0.0122 0 50.12
15.000 2.0000 14.999 1.6748 0 25.766 0.3000 25.766 0.0122 0 50.12
16.000 2.0000 15.999 1.6851 0 25.766 0.3000 25.766 0.0122 0 50.12
17.000 2.0000 16.999 1.6952 0 25.766 0.3000 25.766 0.0122 0 50.19
18.000 2.0000 17.998 1.7053 0 25.766 0.3000 25.766 0.0122 0 50.19
19.000 2.0000 18.999 1.7150 0 25.766 0.3000 25.766 0.0121 0 50.19
20.000 2.0000 20.000 1.7248 0 25.766 0.3000 25.766 0.0122 0 50.19
0.000 2.0000 0.002 0.0000 0 29.952 0.3000 29.952 0.0142 0 50.12
1.000 2.0000 1.000 1.4675 0 29.952 0.3000 29.953 0.0141 0 49.81
2.000 2.0000 2.001 1.6718 0 29.952 0.3000 29.952 0.0141 0 49.62
3.000 2.0000 3.000 1.7068 0 29.952 0.3000 29.953 0.0141 0 49.62
4.000 2.0000 4.001 1.7298 0 29.952 0.3000 29.953 0.0141 0 49.62
5.000 2.0000 5.001 1.7492 0 29.952 0.3000 29.953 0.0141 0 49.69
6.000 2.0000 6.001 1.7668 0 29.952 0.3000 29.953 0.0141 0 49.81
7.000 2.0000 7.001 1.7833 0 29.952 0.3000 29.952 0.0141 0 49.88
8.000 2.0000 8.000 1.7987 0 29.952 0.3000 29.952 0.0141 0 50.00
9.000 2.0000 9.000 1.8134 0 29.952 0.3000 29.953 0.0142 0 50.00
10.000 2.0000 10.000 1.8274 0 29.952 0.3000 29.953 0.0141 0 50.06
11.000 2.0000 10.999 1.8409 0 29.952 0.3000 29.953 0.0142 0 50.12
12.000 2.0000 12.000 1.8538 0 29.952 0.3000 29.953 0.0141 0 50.12
13.000 2.0000 12.999 1.8664 0 29.952 0.3000 29.952 0.0142 0 50.12
14.000 2.0000 13.999 1.8785 0 29.952 0.3000 29.952 0.0141 0 50.12
15.000 2.0000 14.999 1.8903 0 29.952 0.3000 29.953 0.0142 0 50.19
16.000 2.0000 15.999 1.9017 0 29.952 0.3000 29.953 0.0141 0 50.19
17.000 2.0000 17.000 1.9127 0 29.952 0.3000 29.952 0.0142 0 50.19
18.000 2.0000 17.999 1.9236 0 29.952 0.3000 29.953 0.0142 0 50.19
19.000 2.0000 18.999 1.9341 0 29.952 0.3000 29.953 0.0141 0 50.19
20.000 2.0000 19.999 1.9447 0 29.952 0.3000 29.953 0.0141 0 50.19
0.000 2.0000 0.003 0.0000 0 34.138 0.2929 34.138 0.0162 0 50.06
1.000 2.0000 1.000 1.5712 0 34.138 0.2929 34.138 0.0161 0 49.75
2.000 2.0000 2.001 1.8364 0 34.138 0.2929 34.138 0.0161 0 49.62
3.000 2.0000 3.000 1.8844 0 34.138 0.2929 34.138 0.0161 0 49.56
4.000 2.0000 4.001 1.9120 0 34.138 0.2929 34.138 0.0161 0 49.62
5.000 2.0000 5.001 1.9347 0 34.138 0.2929 34.138 0.0161 0 49.69
6.000 2.0000 6.001 1.9550 0 34.138 0.2929 34.138 0.0161 0 49.81
7.000 2.0000 7.001 1.9735 0 34.138 0.2929 34.138 0.0161 0 49.94
8.000 2.0000 8.000 1.9910 0 34.138 0.2929 34.138 0.0161 0 50.00
9.000 2.0000 8.547 2.0003 1 34.138 0.2929 34.138 0.0161 0 50.06
0.000 2.0000 0.002 0.0000 0 38.324 0.2609 38.323 0.0182 0 50.00
1.000 2.0000 1.000 1.6647 0 38.324 0.2609 38.323 0.0181 0 49.88
2.000 2.0000 2.001 1.9854 0 38.324 0.2609 38.323 0.0181 0 49.81
3.000 2.0000 2.139 2.0003 1 38.324 0.2609 38.323 0.0180 0 49.81
0.000 2.0000 0.003 0.0000 0 42.510 0.2352 42.509 0.0202 0 49.88
1.000 2.0000 1.000 1.7501 0 42.510 0.2352 42.510 0.0201 0 49.88
2.000 2.0000 1.518 2.0003 1 42.510 0.2352 42.509 0.0200 0 49.88
